# E (eV)   ldos(E)   pdos(E)_1   pdos(E)_2   pdos(E)_3   pdos(E)_4
 -10.000  0.000E+00  0.000E+00  0.000E+00  0.000E+00  0.000E+00
  -9.960  0.000E+00  0.000E+00  0.000E+00  0.000E+00  0.000E+00
  -9.920  0.000E+00  0.000E+00  0.000E+00  0.000E+00  0.000E+00
  -9.880  0.000E+00  0.000E+00  0.000E+00  0.000E+00  0.000E+00
  -9.840  0.000E+00  0.000E+00  0.000E+00  0.000E+00  0.000E+00
  -9.800  0.000E+00  0.000E+00  0.000E+00  0.000E+00  0.000E+00
  -9.760  0.000E+00  0.000E+00  0.000E+00  0.000E+00  0.000E+00
  -9.720  0.000E+00  0.000E+00  0.000E+00  0.000E+00  0.000E+00
  -9.680  0.000E+00  0.000E+00  0.000E+00  0.000E+00  0.000E+00
  -9.640  0.000E+00  0.000E+00  0.000E+00  0.000E+00  0.000E+00
  -9.600  0.000E+00  0.000E+00  0.000E+00  0.000E+00  0.000E+00
  -9.560  0.000E+00  0.000E+00  0.000E+00  0.000E+00  0.000E+00
  -9.520  0.000E+00  0.000E+00  0.000E+00  0.000E+00  0.000E+00
  -9.480  0.000E+00  0.000E+00  0.000E+00  0.000E+00  0.000E+00
  -9.440  0.000E+00  0.000E+00  0.000E+00  0.000E+00  0.000E+00
  -9.400  0.000E+00  0.000E+00  0.000E+00  0.000E+00  0.000E+00
  -9.360  0.000E+00  0.000E+00  0.000E+00  0.000E+00  0.000E+00
  -9.320  0.000E+00  0.000E+00  0.000E+00  0.000E+00  0.000E+00
  -9.280  0.000E+00  0.000E+00  0.000E+00  0.000E+00  0.000E+00
  -9.240  0.000E+00  0.000E+00  0.000E+00  0.000E+00  0.000E+00
  -9.200  0.000E+00  0.000E+00  0.000E+00  0.000E+00  0.000E+00
  -9.160  0.000E+00  0.000E+00  0.000E+00  0.000E+00  0.000E+00
  -9.120  0.000E+00  0.000E+00  0.000E+00  0.000E+00  0.000E+00
  -9.080  0.000E+00  0.000E+00  0.000E+00  0.000E+00  0.000E+00
  -9.040  0.000E+00  0.000E+00  0.000E+00  0.000E+00  0.000E+00
  -9.000  0.000E+00  0.000E+00  0.000E+00  0.000E+00  0.000E+00
  -8.960  0.000E+00  0.000E+00  0.000E+00  0.000E+00  0.000E+00
  -8.920  0.000E+00  0.000E+00  0.000E+00  0.000E+00  0.000E+00
  -8.880  0.000E+00  0.000E+00  0.000E+00  0.000E+00  0.000E+00
  -8.840  0.000E+00  0.000E+00  0.000E+00  0.000E+00  0.000E+00
  -8.800  0.000E+00  0.000E+00  0.000E+00  0.000E+00  0.000E+00
  -8.760  0.000E+00  0.000E+00  0.000E+00  0.000E+00  0.000E+00
  -8.720  0.000E+00  0.000E+00  0.000E+00  0.000E+00  0.000E+00
  -8.680  0.000E+00  0.000E+00  0.000E+00  0.000E+00  0.000E+00
  -8.640  0.000E+00  0.000E+00  0.000E+00  0.000E+00  0.000E+00
  -8.600  0.000E+00  0.000E+00  0.000E+00  0.000E+00  0.000E+00
  -8.560  0.000E+00  0.000E+00  0.000E+00  0.000E+00  0.000E+00
  -8.520  0.000E+00  0.000E+00  0.000E+00  0.000E+00  0.000E+00
  -8.480  0.000E+00  0.000E+00  0.000E+00  0.000E+00  0.000E+00
  -8.440  0.000E+00  0.000E+00  0.000E+00  0.000E+00  0.000E+00
  -8.400  0.000E+00  0.000E+00  0.000E+00  0.000E+00  0.000E+00
  -8.360  0.000E+00  0.000E+00  0.000E+00  0.000E+00  0.000E+00
  -8.320  0.000E+00  0.000E+00  0.000E+00  0.000E+00  0.000E+00
  -8.280  0.000E+00  0.000E+00  0.000E+00  0.000E+00  0.000E+00
  -8.240  0.000E+00  0.000E+00  0.000E+00  0.000E+00  0.000E+00
  -8.200  0.000E+00  0.000E+00  0.000E+00  0.000E+00  0.000E+00
  -8.160  0.000E+00  0.000E+00  0.000E+00  0.000E+00  0.000E+00
  -8.120  0.000E+00  0.000E+00  0.000E+00  0.000E+00  0.000E+00
  -8.080  0.000E+00  0.000E+00  0.000E+00  0.000E+00  0.000E+00
  -8.040  0.000E+00  0.000E+00  0.000E+00  0.000E+00  0.000E+00
  -8.000  0.000E+00  0.000E+00  0.000E+00  0.000E+00  0.000E+00
  -7.960  0.000E+00  0.000E+00  0.000E+00  0.000E+00  0.000E+00
  -7.920  0.000E+00  0.000E+00  0.000E+00  0.000E+00  0.000E+00
  -7.880  0.000E+00  0.000E+00  0.000E+00  0.000E+00  0.000E+00
  -7.840  0.139E-33  0.124E-34  0.837E-34  0.285E-34  0.147E-34
  -7.800  0.243E-19  0.145E-21  0.428E-20  0.272E-20  0.172E-19
  -7.760  0.775E-15  0.462E-17  0.136E-15  0.866E-16  0.547E-15
  -7.720  0.362E-11  0.216E-13  0.637E-12  0.404E-12  0.255E-11
  -7.680  0.247E-08  0.147E-10  0.436E-09  0.277E-09  0.175E-08
  -7.640  0.248E-06  0.148E-08  0.437E-07  0.278E-07  0.175E-06
  -7.600  0.374E-05  0.226E-07  0.657E-06  0.425E-06  0.264E-05
  -7.560  0.110E-04  0.712E-07  0.189E-05  0.135E-05  0.767E-05
  -7.520  0.162E-04  0.113E-06  0.270E-05  0.211E-05  0.113E-04
  -7.480  0.105E-04  0.758E-07  0.177E-05  0.126E-05  0.743E-05
  -7.440  0.196E-04  0.530E-06  0.322E-05  0.239E-05  0.134E-04
  -7.400  0.550E-04  0.425E-05  0.860E-05  0.785E-05  0.343E-04
  -7.360  0.782E-04  0.922E-05  0.119E-04  0.121E-04  0.449E-04
  -7.320  0.380E-04  0.110E-04  0.600E-05  0.582E-05  0.152E-04
  -7.280  0.192E-04  0.643E-05  0.272E-05  0.362E-05  0.640E-05
  -7.240  0.893E-04  0.190E-04  0.125E-04  0.175E-04  0.403E-04
  -7.200  0.171E-03  0.403E-04  0.265E-04  0.304E-04  0.734E-04
  -7.160  0.135E-03  0.360E-04  0.217E-04  0.275E-04  0.494E-04
  -7.120  0.608E-04  0.799E-05  0.864E-05  0.168E-04  0.273E-04
  -7.080  0.499E-04  0.140E-04  0.112E-04  0.862E-05  0.161E-04
  -7.040  0.108E-03  0.489E-04  0.270E-04  0.201E-04  0.118E-04
  -7.000  0.137E-03  0.585E-04  0.358E-04  0.259E-04  0.166E-04
  -6.960  0.111E-03  0.338E-04  0.337E-04  0.144E-04  0.288E-04
  -6.920  0.573E-04  0.173E-04  0.148E-04  0.829E-05  0.169E-04
  -6.880  0.373E-04  0.122E-04  0.901E-05  0.825E-05  0.781E-05
  -6.840  0.836E-04  0.146E-04  0.245E-04  0.172E-04  0.273E-04
  -6.800  0.123E-03  0.194E-04  0.311E-04  0.221E-04  0.504E-04
  -6.760  0.116E-03  0.273E-04  0.227E-04  0.238E-04  0.418E-04
  -6.720  0.338E-03  0.207E-04  0.556E-04  0.106E-03  0.156E-03
  -6.680  0.150E-02  0.390E-04  0.161E-03  0.588E-03  0.715E-03
  -6.640  0.323E-02  0.853E-04  0.289E-03  0.118E-02  0.168E-02
  -6.600  0.425E-02  0.111E-03  0.355E-03  0.145E-02  0.233E-02
  -6.560  0.301E-02  0.138E-03  0.242E-03  0.112E-02  0.151E-02
  -6.520  0.205E-02  0.276E-03  0.269E-03  0.767E-03  0.741E-03
  -6.480  0.203E-02  0.583E-03  0.593E-03  0.502E-03  0.354E-03
  -6.440  0.215E-02  0.739E-03  0.775E-03  0.374E-03  0.260E-03
  -6.400  0.293E-02  0.144E-02  0.106E-02  0.279E-03  0.152E-03
  -6.360  0.384E-02  0.216E-02  0.128E-02  0.267E-03  0.122E-03
  -6.320  0.235E-02  0.119E-02  0.833E-03  0.207E-03  0.114E-03
  -6.280  0.140E-02  0.641E-03  0.570E-03  0.128E-03  0.578E-04
  -6.240  0.965E-03  0.366E-03  0.418E-03  0.103E-03  0.784E-04
  -6.200  0.776E-03  0.295E-03  0.335E-03  0.824E-04  0.639E-04
  -6.160  0.856E-03  0.379E-03  0.352E-03  0.789E-04  0.464E-04
  -6.120  0.669E-03  0.259E-03  0.267E-03  0.705E-04  0.726E-04
  -6.080  0.403E-03  0.886E-04  0.199E-03  0.375E-04  0.776E-04
  -6.040  0.538E-03  0.172E-03  0.254E-03  0.511E-04  0.609E-04
  -6.000  0.340E-03  0.129E-03  0.131E-03  0.481E-04  0.326E-04
  -5.960  0.345E-03  0.819E-04  0.105E-03  0.130E-03  0.279E-04
  -5.920  0.399E-03  0.904E-04  0.122E-03  0.165E-03  0.221E-04
  -5.880  0.254E-03  0.531E-04  0.616E-04  0.120E-03  0.198E-04
  -5.840  0.490E-03  0.798E-04  0.135E-03  0.216E-03  0.596E-04
  -5.800  0.492E-03  0.487E-04  0.147E-03  0.195E-03  0.101E-03
  -5.760  0.652E-03  0.970E-04  0.106E-03  0.338E-03  0.111E-03
  -5.720  0.560E-03  0.110E-03  0.959E-04  0.238E-03  0.115E-03
  -5.680  0.219E-03  0.487E-04  0.543E-04  0.703E-04  0.462E-04
  -5.640  0.378E-03  0.668E-04  0.845E-04  0.153E-03  0.743E-04
  -5.600  0.708E-03  0.135E-03  0.128E-03  0.218E-03  0.227E-03
  -5.560  0.103E-02  0.135E-03  0.138E-03  0.241E-03  0.513E-03
  -5.520  0.120E-02  0.128E-03  0.211E-03  0.249E-03  0.614E-03
  -5.480  0.593E-03  0.734E-04  0.127E-03  0.114E-03  0.278E-03
  -5.440  0.424E-03  0.110E-03  0.107E-03  0.373E-04  0.169E-03
  -5.400  0.788E-03  0.256E-03  0.198E-03  0.608E-04  0.273E-03
  -5.360  0.525E-03  0.187E-03  0.105E-03  0.475E-04  0.186E-03
  -5.320  0.367E-03  0.184E-03  0.367E-04  0.892E-04  0.575E-04
  -5.280  0.652E-03  0.278E-03  0.637E-04  0.215E-03  0.951E-04
  -5.240  0.762E-03  0.302E-03  0.102E-03  0.179E-03  0.179E-03
  -5.200  0.521E-03  0.224E-03  0.575E-04  0.825E-04  0.157E-03
  -5.160  0.320E-03  0.156E-03  0.296E-04  0.618E-04  0.727E-04
  -5.120  0.497E-03  0.222E-03  0.801E-04  0.149E-03  0.456E-04
  -5.080  0.881E-03  0.303E-03  0.205E-03  0.248E-03  0.124E-03
  -5.040  0.106E-02  0.316E-03  0.289E-03  0.250E-03  0.209E-03
  -5.000  0.443E-03  0.131E-03  0.135E-03  0.854E-04  0.918E-04
  -4.960  0.313E-03  0.701E-04  0.127E-03  0.494E-04  0.663E-04
  -4.920  0.503E-03  0.619E-04  0.176E-03  0.114E-03  0.151E-03
  -4.880  0.875E-03  0.107E-03  0.343E-03  0.285E-03  0.140E-03
  -4.840  0.679E-03  0.128E-03  0.243E-03  0.203E-03  0.104E-03
  -4.800  0.640E-03  0.947E-04  0.229E-03  0.138E-03  0.178E-03
  -4.760  0.788E-03  0.113E-03  0.229E-03  0.218E-03  0.228E-03
  -4.720  0.829E-03  0.149E-03  0.148E-03  0.277E-03  0.255E-03
  -4.680  0.636E-03  0.112E-03  0.981E-04  0.172E-03  0.253E-03
  -4.640  0.786E-03  0.171E-03  0.171E-03  0.232E-03  0.211E-03
  -4.600  0.100E-02  0.243E-03  0.201E-03  0.337E-03  0.221E-03
  -4.560  0.887E-03  0.294E-03  0.115E-03  0.262E-03  0.215E-03
  -4.520  0.856E-03  0.319E-03  0.127E-03  0.233E-03  0.178E-03
  -4.480  0.711E-03  0.239E-03  0.129E-03  0.160E-03  0.183E-03
  -4.440  0.700E-03  0.183E-03  0.124E-03  0.209E-03  0.184E-03
  -4.400  0.978E-03  0.219E-03  0.215E-03  0.395E-03  0.149E-03
  -4.360  0.765E-03  0.155E-03  0.177E-03  0.291E-03  0.142E-03
  -4.320  0.471E-03  0.134E-03  0.971E-04  0.152E-03  0.879E-04
  -4.280  0.417E-03  0.146E-03  0.909E-04  0.128E-03  0.521E-04
  -4.240  0.249E-03  0.848E-04  0.661E-04  0.711E-04  0.266E-04
  -4.200  0.782E-03  0.305E-03  0.136E-03  0.270E-03  0.704E-04
  -4.160  0.131E-02  0.416E-03  0.230E-03  0.506E-03  0.155E-03
  -4.120  0.846E-03  0.236E-03  0.192E-03  0.318E-03  0.100E-03
  -4.080  0.911E-03  0.390E-03  0.224E-03  0.206E-03  0.921E-04
  -4.040  0.836E-03  0.300E-03  0.287E-03  0.118E-03  0.131E-03
  -4.000  0.653E-03  0.183E-03  0.262E-03  0.110E-03  0.979E-04
  -3.960  0.672E-03  0.204E-03  0.186E-03  0.180E-03  0.102E-03
  -3.920  0.690E-03  0.211E-03  0.160E-03  0.195E-03  0.125E-03
  -3.880  0.723E-03  0.127E-03  0.219E-03  0.192E-03  0.185E-03
  -3.840  0.601E-03  0.552E-04  0.187E-03  0.118E-03  0.241E-03
  -3.800  0.472E-03  0.474E-04  0.149E-03  0.736E-04  0.202E-03
  -3.760  0.520E-03  0.103E-03  0.162E-03  0.860E-04  0.169E-03
  -3.720  0.724E-03  0.126E-03  0.282E-03  0.751E-04  0.241E-03
  -3.680  0.868E-03  0.702E-04  0.313E-03  0.154E-03  0.331E-03
  -3.640  0.507E-03  0.254E-04  0.154E-03  0.158E-03  0.169E-03
  -3.600  0.507E-03  0.305E-04  0.162E-03  0.140E-03  0.174E-03
  -3.560  0.761E-03  0.458E-04  0.276E-03  0.147E-03  0.292E-03
  -3.520  0.609E-03  0.367E-04  0.253E-03  0.991E-04  0.220E-03
  -3.480  0.530E-03  0.304E-04  0.179E-03  0.135E-03  0.186E-03
  -3.440  0.542E-03  0.239E-04  0.150E-03  0.200E-03  0.168E-03
  -3.400  0.598E-03  0.167E-04  0.190E-03  0.210E-03  0.182E-03
  -3.360  0.560E-03  0.151E-04  0.206E-03  0.135E-03  0.204E-03
  -3.320  0.359E-03  0.127E-04  0.126E-03  0.667E-04  0.153E-03
  -3.280  0.372E-03  0.240E-04  0.150E-03  0.481E-04  0.149E-03
  -3.240  0.458E-03  0.664E-04  0.215E-03  0.469E-04  0.130E-03
  -3.200  0.575E-03  0.102E-03  0.283E-03  0.495E-04  0.140E-03
  -3.160  0.432E-03  0.101E-03  0.206E-03  0.380E-04  0.873E-04
  -3.120  0.258E-03  0.920E-04  0.910E-04  0.302E-04  0.445E-04
  -3.080  0.435E-03  0.123E-03  0.196E-03  0.481E-04  0.687E-04
  -3.040  0.457E-03  0.927E-04  0.236E-03  0.602E-04  0.682E-04
  -3.000  0.383E-03  0.788E-04  0.158E-03  0.914E-04  0.546E-04
  -2.960  0.381E-03  0.124E-03  0.769E-04  0.144E-03  0.361E-04
  -2.920  0.530E-03  0.167E-03  0.148E-03  0.148E-03  0.678E-04
  -2.880  0.740E-03  0.272E-03  0.160E-03  0.171E-03  0.136E-03
  -2.840  0.667E-03  0.307E-03  0.763E-04  0.176E-03  0.108E-03
  -2.800  0.535E-03  0.194E-03  0.329E-04  0.240E-03  0.681E-04
  -2.760  0.487E-03  0.149E-03  0.291E-04  0.240E-03  0.689E-04
  -2.720  0.414E-03  0.210E-03  0.233E-04  0.148E-03  0.331E-04
  -2.680  0.332E-03  0.190E-03  0.253E-04  0.855E-04  0.315E-04
  -2.640  0.398E-03  0.197E-03  0.293E-04  0.632E-04  0.109E-03
  -2.600  0.394E-03  0.236E-03  0.133E-04  0.633E-04  0.808E-04
  -2.560  0.272E-03  0.180E-03  0.151E-04  0.473E-04  0.297E-04
  -2.520  0.207E-03  0.918E-04  0.387E-04  0.128E-04  0.632E-04
  -2.480  0.291E-03  0.155E-03  0.461E-04  0.155E-04  0.746E-04
  -2.440  0.354E-03  0.200E-03  0.617E-04  0.330E-04  0.586E-04
  -2.400  0.208E-03  0.844E-04  0.671E-04  0.241E-04  0.324E-04
  -2.360  0.109E-03  0.650E-04  0.205E-04  0.747E-05  0.163E-04
  -2.320  0.168E-03  0.128E-03  0.665E-05  0.678E-05  0.273E-04
  -2.280  0.872E-04  0.501E-04  0.101E-04  0.711E-05  0.199E-04
  -2.240  0.773E-04  0.342E-04  0.122E-04  0.743E-05  0.235E-04
  -2.200  0.740E-04  0.325E-04  0.110E-04  0.813E-05  0.224E-04
  -2.160  0.285E-04  0.609E-05  0.603E-05  0.657E-05  0.982E-05
  -2.120  0.257E-04  0.216E-05  0.477E-05  0.104E-04  0.841E-05
  -2.080  0.152E-04  0.109E-05  0.280E-05  0.627E-05  0.505E-05
  -2.040  0.887E-05  0.204E-06  0.193E-05  0.331E-05  0.342E-05
  -2.000  0.395E-05  0.988E-07  0.607E-06  0.200E-05  0.124E-05
  -1.960  0.100E-04  0.431E-06  0.272E-06  0.774E-05  0.157E-05
  -1.920  0.103E-04  0.462E-06  0.247E-06  0.817E-05  0.147E-05
  -1.880  0.160E-05  0.733E-07  0.365E-07  0.128E-05  0.207E-06
  -1.840  0.124E-06  0.202E-08  0.124E-08  0.115E-06  0.642E-08
  -1.800  0.144E-05  0.493E-08  0.731E-08  0.139E-05  0.350E-07
  -1.760  0.346E-05  0.118E-07  0.175E-07  0.334E-05  0.841E-07
  -1.720  0.124E-05  0.456E-08  0.808E-08  0.118E-05  0.482E-07
  -1.680  0.663E-06  0.164E-07  0.658E-07  0.177E-06  0.403E-06
  -1.640  0.375E-05  0.223E-06  0.692E-06  0.679E-06  0.216E-05
  -1.600  0.100E-04  0.995E-06  0.242E-05  0.158E-05  0.505E-05
  -1.560  0.159E-04  0.287E-05  0.466E-05  0.229E-05  0.607E-05
  -1.520  0.220E-04  0.519E-05  0.741E-05  0.381E-05  0.563E-05
  -1.480  0.223E-04  0.471E-05  0.889E-05  0.434E-05  0.439E-05
  -1.440  0.230E-04  0.605E-05  0.108E-04  0.378E-05  0.236E-05
  -1.400  0.280E-04  0.815E-05  0.137E-04  0.401E-05  0.209E-05
  -1.360  0.184E-04  0.388E-05  0.997E-05  0.217E-05  0.239E-05
  -1.320  0.138E-04  0.247E-05  0.717E-05  0.218E-05  0.195E-05
  -1.280  0.204E-04  0.502E-05  0.653E-05  0.615E-05  0.267E-05
  -1.240  0.225E-04  0.519E-05  0.644E-05  0.753E-05  0.338E-05
  -1.200  0.187E-04  0.309E-05  0.292E-05  0.882E-05  0.390E-05
  -1.160  0.127E-04  0.167E-05  0.168E-05  0.666E-05  0.270E-05
  -1.120  0.142E-04  0.322E-05  0.534E-05  0.441E-05  0.122E-05
  -1.080  0.135E-04  0.306E-05  0.589E-05  0.372E-05  0.837E-06
  -1.040  0.896E-05  0.161E-05  0.511E-05  0.169E-05  0.545E-06
  -1.000  0.527E-05  0.959E-06  0.333E-05  0.606E-06  0.374E-06
  -0.960  0.223E-05  0.337E-06  0.164E-05  0.901E-07  0.166E-06
  -0.920  0.393E-05  0.204E-06  0.332E-05  0.289E-06  0.120E-06
  -0.880  0.401E-05  0.168E-06  0.341E-05  0.321E-06  0.103E-06
  -0.840  0.677E-06  0.262E-07  0.580E-06  0.542E-07  0.162E-07
  -0.800  0.692E-06  0.402E-08  0.652E-06  0.350E-07  0.186E-08
  -0.760  0.185E-05  0.937E-08  0.175E-05  0.923E-07  0.408E-08
  -0.720  0.743E-06  0.376E-08  0.701E-06  0.370E-07  0.163E-08
  -0.680  0.437E-07  0.221E-09  0.412E-07  0.217E-08  0.960E-10
  -0.640  0.376E-09  0.190E-11  0.354E-09  0.187E-10  0.826E-12
  -0.600  0.474E-12  0.239E-14  0.447E-12  0.236E-13  0.104E-14
  -0.560  0.875E-16  0.443E-18  0.825E-16  0.435E-17  0.193E-18
  -0.520  0.237E-20  0.149E-22  0.223E-20  0.118E-21  0.650E-23
  -0.480  0.303E-26  0.194E-26  0.177E-27  0.549E-28  0.852E-27
  -0.440  0.291E-30  0.187E-30  0.170E-31  0.528E-32  0.819E-31
  -0.400  0.409E-35  0.263E-35  0.240E-36  0.743E-37  0.115E-35
  -0.360  0.000E+00  0.000E+00  0.000E+00  0.000E+00  0.000E+00
  -0.320  0.000E+00  0.000E+00  0.000E+00  0.000E+00  0.000E+00
  -0.280  0.000E+00  0.000E+00  0.000E+00  0.000E+00  0.000E+00
  -0.240  0.000E+00  0.000E+00  0.000E+00  0.000E+00  0.000E+00
  -0.200  0.000E+00  0.000E+00  0.000E+00  0.000E+00  0.000E+00
  -0.160  0.000E+00  0.000E+00  0.000E+00  0.000E+00  0.000E+00
  -0.120  0.000E+00  0.000E+00  0.000E+00  0.000E+00  0.000E+00
  -0.080  0.000E+00  0.000E+00  0.000E+00  0.000E+00  0.000E+00
  -0.040  0.000E+00  0.000E+00  0.000E+00  0.000E+00  0.000E+00
   0.000  0.000E+00  0.000E+00  0.000E+00  0.000E+00  0.000E+00
   0.040  0.000E+00  0.000E+00  0.000E+00  0.000E+00  0.000E+00
   0.080  0.000E+00  0.000E+00  0.000E+00  0.000E+00  0.000E+00
   0.120  0.000E+00  0.000E+00  0.000E+00  0.000E+00  0.000E+00
   0.160  0.000E+00  0.000E+00  0.000E+00  0.000E+00  0.000E+00
   0.200  0.000E+00  0.000E+00  0.000E+00  0.000E+00  0.000E+00
   0.240  0.000E+00  0.000E+00  0.000E+00  0.000E+00  0.000E+00
   0.280  0.000E+00  0.000E+00  0.000E+00  0.000E+00  0.000E+00
   0.320  0.000E+00  0.000E+00  0.000E+00  0.000E+00  0.000E+00
   0.360  0.000E+00  0.000E+00  0.000E+00  0.000E+00  0.000E+00
   0.400  0.000E+00  0.000E+00  0.000E+00  0.000E+00  0.000E+00
   0.440  0.000E+00  0.000E+00  0.000E+00  0.000E+00  0.000E+00
   0.480  0.000E+00  0.000E+00  0.000E+00  0.000E+00  0.000E+00
   0.520  0.000E+00  0.000E+00  0.000E+00  0.000E+00  0.000E+00
   0.560  0.000E+00  0.000E+00  0.000E+00  0.000E+00  0.000E+00
   0.600  0.000E+00  0.000E+00  0.000E+00  0.000E+00  0.000E+00
   0.640  0.160E-33  0.167E-34  0.343E-34  0.242E-34  0.843E-34
   0.680  0.484E-29  0.506E-30  0.104E-29  0.734E-30  0.256E-29
   0.720  0.250E-20  0.577E-21  0.119E-20  0.206E-21  0.532E-21
   0.760  0.471E-16  0.109E-16  0.224E-16  0.388E-17  0.100E-16
   0.800  0.130E-12  0.300E-13  0.617E-13  0.107E-13  0.277E-13
   0.840  0.527E-10  0.122E-10  0.250E-10  0.434E-11  0.112E-10
   0.880  0.312E-08  0.720E-09  0.148E-08  0.257E-09  0.665E-09
   0.920  0.282E-07  0.628E-08  0.132E-07  0.240E-08  0.631E-08
   0.960  0.117E-06  0.103E-07  0.409E-07  0.159E-07  0.501E-07
   1.000  0.953E-06  0.278E-07  0.284E-06  0.150E-06  0.491E-06
   1.040  0.159E-05  0.442E-07  0.471E-06  0.250E-06  0.821E-06
   1.080  0.402E-06  0.120E-07  0.120E-06  0.633E-07  0.207E-06
   1.120  0.366E-06  0.266E-07  0.120E-06  0.549E-07  0.164E-06
   1.160  0.167E-05  0.104E-06  0.533E-06  0.253E-06  0.781E-06
   1.200  0.128E-05  0.862E-07  0.395E-06  0.202E-06  0.596E-06
   1.240  0.734E-06  0.323E-06  0.139E-06  0.189E-06  0.825E-07
   1.280  0.179E-05  0.888E-06  0.305E-06  0.494E-06  0.103E-06
   1.320  0.191E-05  0.403E-06  0.458E-06  0.459E-06  0.589E-06
   1.360  0.239E-05  0.237E-06  0.643E-06  0.548E-06  0.959E-06
   1.400  0.482E-05  0.865E-06  0.122E-05  0.114E-05  0.160E-05
   1.440  0.515E-05  0.732E-06  0.140E-05  0.108E-05  0.194E-05
   1.480  0.230E-05  0.207E-06  0.712E-06  0.381E-06  0.100E-05
   1.520  0.750E-06  0.941E-07  0.238E-06  0.133E-06  0.284E-06
   1.560  0.102E-05  0.420E-06  0.241E-06  0.261E-06  0.943E-07
   1.600  0.339E-05  0.106E-05  0.854E-06  0.815E-06  0.659E-06
   1.640  0.720E-05  0.179E-05  0.186E-05  0.174E-05  0.181E-05
   1.680  0.855E-05  0.234E-05  0.201E-05  0.253E-05  0.168E-05
   1.720  0.419E-05  0.794E-06  0.102E-05  0.140E-05  0.981E-06
   1.760  0.620E-06  0.767E-07  0.176E-06  0.205E-06  0.162E-06
   1.800  0.143E-05  0.111E-06  0.363E-06  0.495E-06  0.456E-06
   1.840  0.669E-05  0.947E-06  0.161E-05  0.228E-05  0.185E-05
   1.880  0.967E-05  0.185E-05  0.216E-05  0.341E-05  0.226E-05
   1.920  0.816E-05  0.136E-05  0.198E-05  0.313E-05  0.169E-05
   1.960  0.725E-05  0.125E-05  0.228E-05  0.180E-05  0.191E-05
   2.000  0.508E-05  0.680E-06  0.150E-05  0.102E-05  0.188E-05
   2.040  0.507E-05  0.131E-05  0.125E-05  0.148E-05  0.104E-05
   2.080  0.100E-04  0.240E-05  0.328E-05  0.256E-05  0.179E-05
   2.120  0.796E-05  0.140E-05  0.343E-05  0.152E-05  0.160E-05
   2.160  0.577E-05  0.835E-06  0.308E-05  0.716E-06  0.115E-05
   2.200  0.501E-05  0.153E-05  0.167E-05  0.106E-05  0.748E-06
   2.240  0.461E-05  0.162E-05  0.101E-05  0.922E-06  0.107E-05
   2.280  0.452E-05  0.161E-05  0.118E-05  0.933E-06  0.800E-06
   2.320  0.789E-05  0.194E-05  0.233E-05  0.166E-05  0.195E-05
   2.360  0.100E-04  0.214E-05  0.269E-05  0.171E-05  0.347E-05
   2.400  0.574E-05  0.815E-06  0.159E-05  0.729E-06  0.261E-05
   2.440  0.276E-05  0.164E-06  0.794E-06  0.133E-06  0.166E-05
   2.480  0.305E-05  0.134E-06  0.869E-06  0.595E-07  0.199E-05
   2.520  0.179E-05  0.451E-06  0.443E-06  0.267E-06  0.632E-06
   2.560  0.452E-05  0.217E-05  0.853E-06  0.122E-05  0.276E-06
   2.600  0.699E-05  0.370E-05  0.104E-05  0.187E-05  0.377E-06
   2.640  0.501E-05  0.219E-05  0.863E-06  0.115E-05  0.811E-06
   2.680  0.302E-05  0.489E-06  0.767E-06  0.479E-06  0.128E-05
   2.720  0.104E-05  0.123E-06  0.310E-06  0.222E-06  0.385E-06
   2.760  0.725E-06  0.152E-06  0.259E-06  0.285E-06  0.296E-07
   2.800  0.718E-06  0.816E-07  0.201E-06  0.381E-06  0.534E-07
   2.840  0.194E-05  0.393E-06  0.646E-06  0.542E-06  0.356E-06
   2.880  0.330E-05  0.900E-06  0.973E-06  0.760E-06  0.663E-06
   2.920  0.178E-05  0.429E-06  0.442E-06  0.395E-06  0.516E-06
   2.960  0.225E-05  0.401E-06  0.590E-06  0.335E-06  0.920E-06
   3.000  0.282E-05  0.372E-06  0.899E-06  0.504E-06  0.104E-05
   3.040  0.237E-05  0.285E-06  0.532E-06  0.691E-06  0.862E-06
   3.080  0.287E-05  0.629E-06  0.429E-06  0.908E-06  0.908E-06
   3.120  0.405E-05  0.934E-06  0.793E-06  0.120E-05  0.112E-05
   3.160  0.579E-05  0.635E-06  0.135E-05  0.849E-06  0.295E-05
   3.200  0.692E-05  0.635E-06  0.167E-05  0.516E-06  0.409E-05
   3.240  0.420E-05  0.537E-06  0.130E-05  0.513E-06  0.184E-05
   3.280  0.364E-05  0.654E-06  0.972E-06  0.670E-06  0.134E-05
   3.320  0.398E-05  0.209E-05  0.589E-06  0.698E-06  0.602E-06
   3.360  0.386E-05  0.206E-05  0.515E-06  0.624E-06  0.665E-06
   3.400  0.377E-05  0.890E-06  0.816E-06  0.624E-06  0.144E-05
   3.440  0.242E-05  0.456E-06  0.570E-06  0.396E-06  0.998E-06
   3.480  0.155E-05  0.215E-06  0.379E-06  0.267E-06  0.692E-06
   3.520  0.277E-05  0.426E-06  0.603E-06  0.343E-06  0.140E-05
   3.560  0.443E-05  0.889E-06  0.784E-06  0.490E-06  0.227E-05
   3.600  0.405E-05  0.583E-06  0.737E-06  0.544E-06  0.219E-05
   3.640  0.380E-05  0.594E-06  0.651E-06  0.542E-06  0.201E-05
   3.680  0.477E-05  0.104E-05  0.751E-06  0.578E-06  0.241E-05
   3.720  0.359E-05  0.181E-05  0.317E-06  0.650E-06  0.806E-06
   3.760  0.212E-05  0.128E-05  0.110E-06  0.506E-06  0.220E-06
   3.800  0.300E-05  0.148E-05  0.294E-06  0.514E-06  0.719E-06
   3.840  0.390E-05  0.811E-06  0.697E-06  0.293E-06  0.210E-05
   3.880  0.227E-05  0.474E-06  0.386E-06  0.233E-06  0.118E-05
   3.920  0.135E-05  0.270E-06  0.150E-06  0.318E-06  0.611E-06
   3.960  0.304E-05  0.678E-06  0.347E-06  0.690E-06  0.133E-05
   4.000  0.369E-05  0.112E-05  0.434E-06  0.739E-06  0.140E-05
   4.040  0.149E-05  0.364E-06  0.230E-06  0.183E-06  0.715E-06
   4.080  0.905E-06  0.317E-06  0.120E-06  0.163E-06  0.304E-06
   4.120  0.170E-05  0.553E-06  0.210E-06  0.282E-06  0.655E-06
   4.160  0.212E-05  0.407E-06  0.344E-06  0.164E-06  0.121E-05
   4.200  0.123E-05  0.175E-06  0.209E-06  0.687E-07  0.776E-06
   4.240  0.117E-05  0.114E-06  0.213E-06  0.881E-07  0.758E-06
   4.280  0.240E-05  0.240E-06  0.426E-06  0.159E-06  0.158E-05
   4.320  0.260E-05  0.686E-06  0.348E-06  0.216E-06  0.134E-05
   4.360  0.158E-05  0.397E-06  0.221E-06  0.168E-06  0.790E-06
   4.400  0.177E-05  0.572E-06  0.254E-06  0.263E-06  0.682E-06
   4.440  0.124E-05  0.727E-06  0.114E-06  0.235E-06  0.165E-06
   4.480  0.109E-05  0.761E-06  0.388E-07  0.211E-06  0.801E-07
   4.520  0.238E-05  0.884E-06  0.274E-06  0.263E-06  0.957E-06
   4.560  0.303E-05  0.433E-06  0.501E-06  0.136E-06  0.196E-05
   4.600  0.926E-06  0.535E-07  0.153E-06  0.187E-07  0.701E-06
   4.640  0.351E-06  0.804E-07  0.210E-07  0.246E-07  0.225E-06
   4.680  0.956E-06  0.702E-06  0.143E-07  0.182E-06  0.573E-07
   4.720  0.143E-05  0.112E-05  0.206E-07  0.279E-06  0.144E-07
   4.760  0.381E-06  0.299E-06  0.903E-08  0.642E-07  0.832E-08
   4.800  0.219E-07  0.174E-07  0.100E-08  0.235E-08  0.115E-08
   4.840  0.325E-09  0.261E-09  0.213E-10  0.166E-10  0.262E-10
   4.880  0.979E-12  0.789E-12  0.715E-13  0.298E-13  0.890E-13
