# E (eV)   ldos(E)   pdos(E)
 -10.000  0.000E+00  0.000E+00
  -9.960  0.000E+00  0.000E+00
  -9.920  0.000E+00  0.000E+00
  -9.880  0.000E+00  0.000E+00
  -9.840  0.000E+00  0.000E+00
  -9.800  0.000E+00  0.000E+00
  -9.760  0.000E+00  0.000E+00
  -9.720  0.000E+00  0.000E+00
  -9.680  0.000E+00  0.000E+00
  -9.640  0.000E+00  0.000E+00
  -9.600  0.000E+00  0.000E+00
  -9.560  0.000E+00  0.000E+00
  -9.520  0.000E+00  0.000E+00
  -9.480  0.000E+00  0.000E+00
  -9.440  0.000E+00  0.000E+00
  -9.400  0.000E+00  0.000E+00
  -9.360  0.000E+00  0.000E+00
  -9.320  0.000E+00  0.000E+00
  -9.280  0.000E+00  0.000E+00
  -9.240  0.000E+00  0.000E+00
  -9.200  0.000E+00  0.000E+00
  -9.160  0.000E+00  0.000E+00
  -9.120  0.000E+00  0.000E+00
  -9.080  0.000E+00  0.000E+00
  -9.040  0.000E+00  0.000E+00
  -9.000  0.000E+00  0.000E+00
  -8.960  0.000E+00  0.000E+00
  -8.920  0.000E+00  0.000E+00
  -8.880  0.000E+00  0.000E+00
  -8.840  0.000E+00  0.000E+00
  -8.800  0.000E+00  0.000E+00
  -8.760  0.000E+00  0.000E+00
  -8.720  0.000E+00  0.000E+00
  -8.680  0.000E+00  0.000E+00
  -8.640  0.000E+00  0.000E+00
  -8.600  0.000E+00  0.000E+00
  -8.560  0.000E+00  0.000E+00
  -8.520  0.000E+00  0.000E+00
  -8.480  0.000E+00  0.000E+00
  -8.440  0.000E+00  0.000E+00
  -8.400  0.000E+00  0.000E+00
  -8.360  0.000E+00  0.000E+00
  -8.320  0.000E+00  0.000E+00
  -8.280  0.000E+00  0.000E+00
  -8.240  0.000E+00  0.000E+00
  -8.200  0.000E+00  0.000E+00
  -8.160  0.000E+00  0.000E+00
  -8.120  0.000E+00  0.000E+00
  -8.080  0.000E+00  0.000E+00
  -8.040  0.000E+00  0.000E+00
  -8.000  0.000E+00  0.000E+00
  -7.960  0.000E+00  0.000E+00
  -7.920  0.000E+00  0.000E+00
  -7.880  0.000E+00  0.000E+00
  -7.840  0.000E+00  0.000E+00
  -7.800  0.000E+00  0.000E+00
  -7.760  0.000E+00  0.000E+00
  -7.720  0.342E-19  0.342E-19
  -7.680  0.258E-14  0.258E-14
  -7.640  0.286E-10  0.286E-10
  -7.600  0.464E-07  0.464E-07
  -7.560  0.110E-04  0.110E-04
  -7.520  0.391E-03  0.391E-03
  -7.480  0.250E-02  0.250E-02
  -7.440  0.750E-02  0.750E-02
  -7.400  0.129E-01  0.129E-01
  -7.360  0.126E-01  0.126E-01
  -7.320  0.570E-02  0.570E-02
  -7.280  0.101E-01  0.101E-01
  -7.240  0.245E-01  0.245E-01
  -7.200  0.284E-01  0.284E-01
  -7.160  0.806E-02  0.806E-02
  -7.120  0.318E-02  0.318E-02
  -7.080  0.219E-01  0.219E-01
  -7.040  0.414E-01  0.414E-01
  -7.000  0.398E-01  0.398E-01
  -6.960  0.250E-01  0.250E-01
  -6.920  0.165E-01  0.165E-01
  -6.880  0.279E-01  0.279E-01
  -6.840  0.385E-01  0.385E-01
  -6.800  0.378E-01  0.378E-01
  -6.760  0.379E-01  0.379E-01
  -6.720  0.350E-01  0.350E-01
  -6.680  0.661E-01  0.661E-01
  -6.640  0.104E+00  0.104E+00
  -6.600  0.603E-01  0.603E-01
  -6.560  0.848E-01  0.848E-01
  -6.520  0.141E+00  0.141E+00
  -6.480  0.147E+00  0.147E+00
  -6.440  0.180E+00  0.180E+00
  -6.400  0.806E-01  0.806E-01
  -6.360  0.246E-01  0.246E-01
  -6.320  0.184E-01  0.184E-01
  -6.280  0.155E-01  0.155E-01
  -6.240  0.114E-01  0.114E-01
  -6.200  0.770E-02  0.770E-02
  -6.160  0.112E-01  0.112E-01
  -6.120  0.382E-02  0.382E-02
  -6.080  0.231E-02  0.231E-02
  -6.040  0.337E-02  0.337E-02
  -6.000  0.962E-03  0.962E-03
  -5.960  0.841E-03  0.841E-03
  -5.920  0.336E-02  0.336E-02
  -5.880  0.242E-02  0.242E-02
  -5.840  0.324E-03  0.324E-03
  -5.800  0.288E-04  0.288E-04
  -5.760  0.552E-03  0.552E-03
  -5.720  0.227E-02  0.227E-02
  -5.680  0.179E-02  0.179E-02
  -5.640  0.113E-02  0.113E-02
  -5.600  0.721E-03  0.721E-03
  -5.560  0.505E-03  0.505E-03
  -5.520  0.130E-02  0.130E-02
  -5.480  0.692E-03  0.692E-03
  -5.440  0.468E-03  0.468E-03
  -5.400  0.140E-02  0.140E-02
  -5.360  0.155E-02  0.155E-02
  -5.320  0.491E-03  0.491E-03
  -5.280  0.197E-02  0.197E-02
  -5.240  0.612E-02  0.612E-02
  -5.200  0.764E-02  0.764E-02
  -5.160  0.331E-02  0.331E-02
  -5.120  0.465E-02  0.465E-02
  -5.080  0.695E-02  0.695E-02
  -5.040  0.292E-02  0.292E-02
  -5.000  0.420E-02  0.420E-02
  -4.960  0.114E-01  0.114E-01
  -4.920  0.196E-01  0.196E-01
  -4.880  0.115E-01  0.115E-01
  -4.840  0.133E-01  0.133E-01
  -4.800  0.163E-01  0.163E-01
  -4.760  0.957E-02  0.957E-02
  -4.720  0.744E-02  0.744E-02
  -4.680  0.992E-02  0.992E-02
  -4.640  0.146E-01  0.146E-01
  -4.600  0.176E-01  0.176E-01
  -4.560  0.139E-01  0.139E-01
  -4.520  0.107E-01  0.107E-01
  -4.480  0.784E-02  0.784E-02
  -4.440  0.753E-02  0.753E-02
  -4.400  0.118E-01  0.118E-01
  -4.360  0.246E-01  0.246E-01
  -4.320  0.165E-01  0.165E-01
  -4.280  0.462E-02  0.462E-02
  -4.240  0.568E-02  0.568E-02
  -4.200  0.659E-02  0.659E-02
  -4.160  0.552E-02  0.552E-02
  -4.120  0.293E-02  0.293E-02
  -4.080  0.343E-02  0.343E-02
  -4.040  0.206E-02  0.206E-02
  -4.000  0.626E-02  0.626E-02
  -3.960  0.124E-01  0.124E-01
  -3.920  0.531E-02  0.531E-02
  -3.880  0.938E-03  0.938E-03
  -3.840  0.143E-02  0.143E-02
  -3.800  0.644E-02  0.644E-02
  -3.760  0.732E-02  0.732E-02
  -3.720  0.334E-02  0.334E-02
  -3.680  0.301E-02  0.301E-02
  -3.640  0.138E-02  0.138E-02
  -3.600  0.102E-02  0.102E-02
  -3.560  0.175E-02  0.175E-02
  -3.520  0.105E-02  0.105E-02
  -3.480  0.694E-03  0.694E-03
  -3.440  0.185E-02  0.185E-02
  -3.400  0.153E-02  0.153E-02
  -3.360  0.259E-03  0.259E-03
  -3.320  0.146E-02  0.146E-02
  -3.280  0.667E-02  0.667E-02
  -3.240  0.144E-01  0.144E-01
  -3.200  0.233E-01  0.233E-01
  -3.160  0.239E-01  0.239E-01
  -3.120  0.154E-01  0.154E-01
  -3.080  0.445E-02  0.445E-02
  -3.040  0.105E-02  0.105E-02
  -3.000  0.834E-03  0.834E-03
  -2.960  0.702E-03  0.702E-03
  -2.920  0.745E-03  0.745E-03
  -2.880  0.962E-03  0.962E-03
  -2.840  0.123E-02  0.123E-02
  -2.800  0.218E-02  0.218E-02
  -2.760  0.318E-02  0.318E-02
  -2.720  0.171E-02  0.171E-02
  -2.680  0.234E-03  0.234E-03
  -2.640  0.618E-05  0.618E-05
  -2.600  0.272E-07  0.272E-07
  -2.560  0.187E-10  0.187E-10
  -2.520  0.195E-14  0.195E-14
  -2.480  0.305E-19  0.305E-19
  -2.440  0.000E+00  0.000E+00
  -2.400  0.185E-19  0.185E-19
  -2.360  0.149E-14  0.149E-14
  -2.320  0.177E-10  0.177E-10
  -2.280  0.308E-07  0.308E-07
  -2.240  0.793E-05  0.793E-05
  -2.200  0.323E-03  0.323E-03
  -2.160  0.287E-02  0.287E-02
  -2.120  0.113E-01  0.113E-01
  -2.080  0.266E-01  0.266E-01
  -2.040  0.342E-01  0.342E-01
  -2.000  0.292E-01  0.292E-01
  -1.960  0.245E-01  0.245E-01
  -1.920  0.277E-01  0.277E-01
  -1.880  0.216E-01  0.216E-01
  -1.840  0.158E-01  0.158E-01
  -1.800  0.312E-01  0.312E-01
  -1.760  0.365E-01  0.365E-01
  -1.720  0.479E-01  0.479E-01
  -1.680  0.387E-01  0.387E-01
  -1.640  0.127E-01  0.127E-01
  -1.600  0.784E-02  0.784E-02
  -1.560  0.289E-02  0.289E-02
  -1.520  0.918E-03  0.918E-03
  -1.480  0.972E-03  0.972E-03
  -1.440  0.884E-03  0.884E-03
  -1.400  0.279E-03  0.279E-03
  -1.360  0.343E-04  0.343E-04
  -1.320  0.851E-06  0.851E-06
  -1.280  0.323E-08  0.323E-08
  -1.240  0.181E-11  0.181E-11
  -1.200  0.155E-15  0.155E-15
  -1.160  0.175E-19  0.175E-19
  -1.120  0.541E-23  0.541E-23
  -1.080  0.272E-27  0.272E-27
  -1.040  0.000E+00  0.000E+00
  -1.000  0.000E+00  0.000E+00
  -0.960  0.000E+00  0.000E+00
  -0.920  0.000E+00  0.000E+00
  -0.880  0.000E+00  0.000E+00
  -0.840  0.000E+00  0.000E+00
  -0.800  0.000E+00  0.000E+00
  -0.760  0.000E+00  0.000E+00
  -0.720  0.000E+00  0.000E+00
  -0.680  0.000E+00  0.000E+00
  -0.640  0.000E+00  0.000E+00
  -0.600  0.000E+00  0.000E+00
  -0.560  0.000E+00  0.000E+00
  -0.520  0.000E+00  0.000E+00
  -0.480  0.000E+00  0.000E+00
  -0.440  0.000E+00  0.000E+00
  -0.400  0.000E+00  0.000E+00
  -0.360  0.000E+00  0.000E+00
  -0.320  0.000E+00  0.000E+00
  -0.280  0.000E+00  0.000E+00
  -0.240  0.000E+00  0.000E+00
  -0.200  0.000E+00  0.000E+00
  -0.160  0.000E+00  0.000E+00
  -0.120  0.000E+00  0.000E+00
  -0.080  0.000E+00  0.000E+00
  -0.040  0.000E+00  0.000E+00
   0.000  0.000E+00  0.000E+00
   0.040  0.000E+00  0.000E+00
   0.080  0.000E+00  0.000E+00
   0.120  0.000E+00  0.000E+00
   0.160  0.000E+00  0.000E+00
   0.200  0.000E+00  0.000E+00
   0.240  0.000E+00  0.000E+00
   0.280  0.000E+00  0.000E+00
   0.320  0.000E+00  0.000E+00
   0.360  0.000E+00  0.000E+00
   0.400  0.000E+00  0.000E+00
   0.440  0.000E+00  0.000E+00
   0.480  0.000E+00  0.000E+00
   0.520  0.000E+00  0.000E+00
   0.560  0.000E+00  0.000E+00
   0.600  0.000E+00  0.000E+00
   0.640  0.000E+00  0.000E+00
   0.680  0.000E+00  0.000E+00
   0.720  0.000E+00  0.000E+00
   0.760  0.000E+00  0.000E+00
   0.800  0.000E+00  0.000E+00
   0.840  0.245E-15  0.245E-15
   0.880  0.439E-11  0.439E-11
   0.920  0.115E-07  0.115E-07
   0.960  0.443E-05  0.443E-05
   1.000  0.250E-03  0.250E-03
   1.040  0.211E-02  0.211E-02
   1.080  0.395E-02  0.395E-02
   1.120  0.638E-02  0.638E-02
   1.160  0.531E-02  0.531E-02
   1.200  0.989E-02  0.989E-02
   1.240  0.748E-02  0.748E-02
   1.280  0.282E-02  0.282E-02
   1.320  0.134E-01  0.134E-01
   1.360  0.164E-01  0.164E-01
   1.400  0.348E-02  0.348E-02
   1.440  0.181E-03  0.181E-03
   1.480  0.131E-02  0.131E-02
   1.520  0.438E-02  0.438E-02
   1.560  0.695E-02  0.695E-02
   1.600  0.176E-01  0.176E-01
   1.640  0.209E-01  0.209E-01
   1.680  0.120E-01  0.120E-01
   1.720  0.280E-02  0.280E-02
   1.760  0.277E-02  0.277E-02
   1.800  0.130E-01  0.130E-01
   1.840  0.152E-01  0.152E-01
   1.880  0.842E-02  0.842E-02
   1.920  0.388E-02  0.388E-02
   1.960  0.216E-01  0.216E-01
   2.000  0.401E-01  0.401E-01
   2.040  0.296E-01  0.296E-01
   2.080  0.127E-01  0.127E-01
   2.120  0.184E-01  0.184E-01
   2.160  0.258E-01  0.258E-01
   2.200  0.281E-01  0.281E-01
   2.240  0.270E-01  0.270E-01
   2.280  0.258E-01  0.258E-01
   2.320  0.211E-01  0.211E-01
   2.360  0.406E-02  0.406E-02
   2.400  0.131E-03  0.131E-03
   2.440  0.673E-03  0.673E-03
   2.480  0.133E-01  0.133E-01
   2.520  0.556E-01  0.556E-01
   2.560  0.690E-01  0.690E-01
   2.600  0.374E-01  0.374E-01
   2.640  0.111E-01  0.111E-01
   2.680  0.107E-02  0.107E-02
   2.720  0.621E-03  0.621E-03
   2.760  0.682E-03  0.682E-03
   2.800  0.715E-02  0.715E-02
   2.840  0.195E-01  0.195E-01
   2.880  0.121E-01  0.121E-01
   2.920  0.132E-01  0.132E-01
   2.960  0.102E-01  0.102E-01
   3.000  0.770E-02  0.770E-02
   3.040  0.109E-01  0.109E-01
   3.080  0.227E-01  0.227E-01
   3.120  0.131E-01  0.131E-01
   3.160  0.121E-01  0.121E-01
   3.200  0.112E-01  0.112E-01
   3.240  0.710E-02  0.710E-02
   3.280  0.742E-02  0.742E-02
   3.320  0.582E-02  0.582E-02
   3.360  0.404E-02  0.404E-02
   3.400  0.123E-02  0.123E-02
   3.440  0.124E-02  0.124E-02
   3.480  0.191E-02  0.191E-02
   3.520  0.154E-02  0.154E-02
   3.560  0.105E-02  0.105E-02
   3.600  0.822E-03  0.822E-03
   3.640  0.118E-02  0.118E-02
   3.680  0.332E-02  0.332E-02
   3.720  0.508E-02  0.508E-02
   3.760  0.156E-02  0.156E-02
   3.800  0.942E-04  0.942E-04
   3.840  0.158E-04  0.158E-04
   3.880  0.798E-04  0.798E-04
   3.920  0.165E-03  0.165E-03
   3.960  0.305E-03  0.305E-03
   4.000  0.922E-03  0.922E-03
   4.040  0.680E-03  0.680E-03
   4.080  0.341E-03  0.341E-03
   4.120  0.506E-03  0.506E-03
   4.160  0.192E-02  0.192E-02
   4.200  0.138E-02  0.138E-02
   4.240  0.243E-03  0.243E-03
   4.280  0.555E-04  0.555E-04
   4.320  0.161E-03  0.161E-03
   4.360  0.272E-03  0.272E-03
   4.400  0.320E-03  0.320E-03
   4.440  0.818E-03  0.818E-03
   4.480  0.721E-03  0.721E-03
   4.520  0.998E-04  0.998E-04
   4.560  0.303E-04  0.303E-04
   4.600  0.280E-03  0.280E-03
   4.640  0.557E-03  0.557E-03
   4.680  0.738E-03  0.738E-03
   4.720  0.381E-03  0.381E-03
   4.760  0.319E-04  0.319E-04
   4.800  0.395E-06  0.395E-06
   4.840  0.714E-09  0.714E-09
