# E (eV)   ldos(E)   pdos(E)
 -10.000  0.000E+00  0.000E+00
  -9.960  0.000E+00  0.000E+00
  -9.920  0.000E+00  0.000E+00
  -9.880  0.000E+00  0.000E+00
  -9.840  0.000E+00  0.000E+00
  -9.800  0.000E+00  0.000E+00
  -9.760  0.000E+00  0.000E+00
  -9.720  0.000E+00  0.000E+00
  -9.680  0.000E+00  0.000E+00
  -9.640  0.000E+00  0.000E+00
  -9.600  0.000E+00  0.000E+00
  -9.560  0.000E+00  0.000E+00
  -9.520  0.000E+00  0.000E+00
  -9.480  0.000E+00  0.000E+00
  -9.440  0.000E+00  0.000E+00
  -9.400  0.000E+00  0.000E+00
  -9.360  0.000E+00  0.000E+00
  -9.320  0.000E+00  0.000E+00
  -9.280  0.000E+00  0.000E+00
  -9.240  0.000E+00  0.000E+00
  -9.200  0.000E+00  0.000E+00
  -9.160  0.000E+00  0.000E+00
  -9.120  0.000E+00  0.000E+00
  -9.080  0.000E+00  0.000E+00
  -9.040  0.000E+00  0.000E+00
  -9.000  0.000E+00  0.000E+00
  -8.960  0.000E+00  0.000E+00
  -8.920  0.000E+00  0.000E+00
  -8.880  0.000E+00  0.000E+00
  -8.840  0.000E+00  0.000E+00
  -8.800  0.000E+00  0.000E+00
  -8.760  0.000E+00  0.000E+00
  -8.720  0.000E+00  0.000E+00
  -8.680  0.000E+00  0.000E+00
  -8.640  0.000E+00  0.000E+00
  -8.600  0.000E+00  0.000E+00
  -8.560  0.000E+00  0.000E+00
  -8.520  0.000E+00  0.000E+00
  -8.480  0.000E+00  0.000E+00
  -8.440  0.000E+00  0.000E+00
  -8.400  0.000E+00  0.000E+00
  -8.360  0.000E+00  0.000E+00
  -8.320  0.000E+00  0.000E+00
  -8.280  0.000E+00  0.000E+00
  -8.240  0.000E+00  0.000E+00
  -8.200  0.000E+00  0.000E+00
  -8.160  0.000E+00  0.000E+00
  -8.120  0.000E+00  0.000E+00
  -8.080  0.000E+00  0.000E+00
  -8.040  0.000E+00  0.000E+00
  -8.000  0.000E+00  0.000E+00
  -7.960  0.000E+00  0.000E+00
  -7.920  0.000E+00  0.000E+00
  -7.880  0.000E+00  0.000E+00
  -7.840  0.000E+00  0.000E+00
  -7.800  0.000E+00  0.000E+00
  -7.760  0.000E+00  0.000E+00
  -7.720  0.110E-19  0.110E-19
  -7.680  0.829E-15  0.829E-15
  -7.640  0.918E-11  0.918E-11
  -7.600  0.149E-07  0.149E-07
  -7.560  0.354E-05  0.354E-05
  -7.520  0.125E-03  0.125E-03
  -7.480  0.782E-03  0.782E-03
  -7.440  0.216E-02  0.216E-02
  -7.400  0.349E-02  0.349E-02
  -7.360  0.324E-02  0.324E-02
  -7.320  0.144E-02  0.144E-02
  -7.280  0.201E-02  0.201E-02
  -7.240  0.462E-02  0.462E-02
  -7.200  0.547E-02  0.547E-02
  -7.160  0.169E-02  0.169E-02
  -7.120  0.519E-03  0.519E-03
  -7.080  0.344E-02  0.344E-02
  -7.040  0.665E-02  0.665E-02
  -7.000  0.575E-02  0.575E-02
  -6.960  0.371E-02  0.371E-02
  -6.920  0.205E-02  0.205E-02
  -6.880  0.227E-02  0.227E-02
  -6.840  0.284E-02  0.284E-02
  -6.800  0.266E-02  0.266E-02
  -6.760  0.267E-02  0.267E-02
  -6.720  0.247E-02  0.247E-02
  -6.680  0.427E-02  0.427E-02
  -6.640  0.649E-02  0.649E-02
  -6.600  0.368E-02  0.368E-02
  -6.560  0.470E-02  0.470E-02
  -6.520  0.723E-02  0.723E-02
  -6.480  0.722E-02  0.722E-02
  -6.440  0.859E-02  0.859E-02
  -6.400  0.333E-02  0.333E-02
  -6.360  0.447E-03  0.447E-03
  -6.320  0.227E-03  0.227E-03
  -6.280  0.214E-03  0.214E-03
  -6.240  0.188E-03  0.188E-03
  -6.200  0.129E-03  0.129E-03
  -6.160  0.183E-03  0.183E-03
  -6.120  0.523E-04  0.523E-04
  -6.080  0.209E-04  0.209E-04
  -6.040  0.737E-04  0.737E-04
  -6.000  0.736E-04  0.736E-04
  -5.960  0.369E-04  0.369E-04
  -5.920  0.107E-03  0.107E-03
  -5.880  0.718E-04  0.718E-04
  -5.840  0.744E-05  0.744E-05
  -5.800  0.330E-06  0.330E-06
  -5.760  0.613E-05  0.613E-05
  -5.720  0.351E-04  0.351E-04
  -5.680  0.480E-04  0.480E-04
  -5.640  0.575E-04  0.575E-04
  -5.600  0.131E-03  0.131E-03
  -5.560  0.923E-04  0.923E-04
  -5.520  0.922E-04  0.922E-04
  -5.480  0.368E-04  0.368E-04
  -5.440  0.320E-04  0.320E-04
  -5.400  0.317E-04  0.317E-04
  -5.360  0.268E-04  0.268E-04
  -5.320  0.193E-04  0.193E-04
  -5.280  0.429E-04  0.429E-04
  -5.240  0.140E-03  0.140E-03
  -5.200  0.209E-03  0.209E-03
  -5.160  0.117E-03  0.117E-03
  -5.120  0.919E-04  0.919E-04
  -5.080  0.123E-03  0.123E-03
  -5.040  0.759E-04  0.759E-04
  -5.000  0.102E-03  0.102E-03
  -4.960  0.190E-03  0.190E-03
  -4.920  0.336E-03  0.336E-03
  -4.880  0.194E-03  0.194E-03
  -4.840  0.219E-03  0.219E-03
  -4.800  0.210E-03  0.210E-03
  -4.760  0.527E-04  0.527E-04
  -4.720  0.144E-04  0.144E-04
  -4.680  0.316E-04  0.316E-04
  -4.640  0.888E-04  0.888E-04
  -4.600  0.184E-03  0.184E-03
  -4.560  0.769E-04  0.769E-04
  -4.520  0.352E-04  0.352E-04
  -4.480  0.233E-04  0.233E-04
  -4.440  0.720E-05  0.720E-05
  -4.400  0.760E-04  0.760E-04
  -4.360  0.331E-03  0.331E-03
  -4.320  0.216E-03  0.216E-03
  -4.280  0.234E-04  0.234E-04
  -4.240  0.221E-05  0.221E-05
  -4.200  0.587E-05  0.587E-05
  -4.160  0.546E-05  0.546E-05
  -4.120  0.821E-06  0.821E-06
  -4.080  0.150E-06  0.150E-06
  -4.040  0.479E-05  0.479E-05
  -4.000  0.643E-04  0.643E-04
  -3.960  0.129E-03  0.129E-03
  -3.920  0.384E-04  0.384E-04
  -3.880  0.184E-05  0.184E-05
  -3.840  0.880E-05  0.880E-05
  -3.800  0.766E-04  0.766E-04
  -3.760  0.991E-04  0.991E-04
  -3.720  0.195E-04  0.195E-04
  -3.680  0.705E-06  0.705E-06
  -3.640  0.592E-07  0.592E-07
  -3.600  0.680E-07  0.680E-07
  -3.560  0.288E-06  0.288E-06
  -3.520  0.446E-06  0.446E-06
  -3.480  0.544E-05  0.544E-05
  -3.440  0.312E-04  0.312E-04
  -3.400  0.267E-04  0.267E-04
  -3.360  0.364E-05  0.364E-05
  -3.320  0.677E-05  0.677E-05
  -3.280  0.376E-04  0.376E-04
  -3.240  0.113E-03  0.113E-03
  -3.200  0.263E-03  0.263E-03
  -3.160  0.353E-03  0.353E-03
  -3.120  0.228E-03  0.228E-03
  -3.080  0.577E-04  0.577E-04
  -3.040  0.147E-04  0.147E-04
  -3.000  0.196E-04  0.196E-04
  -2.960  0.125E-04  0.125E-04
  -2.920  0.895E-05  0.895E-05
  -2.880  0.927E-05  0.927E-05
  -2.840  0.731E-05  0.731E-05
  -2.800  0.704E-05  0.704E-05
  -2.760  0.129E-04  0.129E-04
  -2.720  0.106E-04  0.106E-04
  -2.680  0.193E-05  0.193E-05
  -2.640  0.592E-07  0.592E-07
  -2.600  0.280E-09  0.280E-09
  -2.560  0.199E-12  0.199E-12
  -2.520  0.210E-16  0.210E-16
  -2.480  0.330E-21  0.330E-21
  -2.440  0.000E+00  0.000E+00
  -2.400  0.101E-21  0.101E-21
  -2.360  0.814E-17  0.814E-17
  -2.320  0.965E-13  0.965E-13
  -2.280  0.168E-09  0.168E-09
  -2.240  0.432E-07  0.432E-07
  -2.200  0.174E-05  0.174E-05
  -2.160  0.144E-04  0.144E-04
  -2.120  0.418E-04  0.418E-04
  -2.080  0.543E-04  0.543E-04
  -2.040  0.418E-04  0.418E-04
  -2.000  0.451E-04  0.451E-04
  -1.960  0.461E-04  0.461E-04
  -1.920  0.330E-04  0.330E-04
  -1.880  0.356E-04  0.356E-04
  -1.840  0.275E-04  0.275E-04
  -1.800  0.433E-04  0.433E-04
  -1.760  0.640E-04  0.640E-04
  -1.720  0.873E-04  0.873E-04
  -1.680  0.817E-04  0.817E-04
  -1.640  0.218E-04  0.218E-04
  -1.600  0.753E-05  0.753E-05
  -1.560  0.310E-05  0.310E-05
  -1.520  0.170E-05  0.170E-05
  -1.480  0.443E-06  0.443E-06
  -1.440  0.319E-06  0.319E-06
  -1.400  0.322E-06  0.322E-06
  -1.360  0.563E-07  0.563E-07
  -1.320  0.147E-08  0.147E-08
  -1.280  0.560E-11  0.560E-11
  -1.240  0.314E-14  0.314E-14
  -1.200  0.323E-18  0.323E-18
  -1.160  0.158E-21  0.158E-21
  -1.120  0.530E-25  0.530E-25
  -1.080  0.266E-29  0.266E-29
  -1.040  0.000E+00  0.000E+00
  -1.000  0.000E+00  0.000E+00
  -0.960  0.000E+00  0.000E+00
  -0.920  0.000E+00  0.000E+00
  -0.880  0.000E+00  0.000E+00
  -0.840  0.000E+00  0.000E+00
  -0.800  0.000E+00  0.000E+00
  -0.760  0.000E+00  0.000E+00
  -0.720  0.000E+00  0.000E+00
  -0.680  0.000E+00  0.000E+00
  -0.640  0.000E+00  0.000E+00
  -0.600  0.000E+00  0.000E+00
  -0.560  0.000E+00  0.000E+00
  -0.520  0.000E+00  0.000E+00
  -0.480  0.000E+00  0.000E+00
  -0.440  0.000E+00  0.000E+00
  -0.400  0.000E+00  0.000E+00
  -0.360  0.000E+00  0.000E+00
  -0.320  0.000E+00  0.000E+00
  -0.280  0.000E+00  0.000E+00
  -0.240  0.000E+00  0.000E+00
  -0.200  0.000E+00  0.000E+00
  -0.160  0.000E+00  0.000E+00
  -0.120  0.000E+00  0.000E+00
  -0.080  0.000E+00  0.000E+00
  -0.040  0.000E+00  0.000E+00
   0.000  0.000E+00  0.000E+00
   0.040  0.000E+00  0.000E+00
   0.080  0.000E+00  0.000E+00
   0.120  0.000E+00  0.000E+00
   0.160  0.000E+00  0.000E+00
   0.200  0.000E+00  0.000E+00
   0.240  0.000E+00  0.000E+00
   0.280  0.000E+00  0.000E+00
   0.320  0.000E+00  0.000E+00
   0.360  0.000E+00  0.000E+00
   0.400  0.000E+00  0.000E+00
   0.440  0.000E+00  0.000E+00
   0.480  0.000E+00  0.000E+00
   0.520  0.000E+00  0.000E+00
   0.560  0.000E+00  0.000E+00
   0.600  0.000E+00  0.000E+00
   0.640  0.000E+00  0.000E+00
   0.680  0.000E+00  0.000E+00
   0.720  0.000E+00  0.000E+00
   0.760  0.000E+00  0.000E+00
   0.800  0.000E+00  0.000E+00
   0.840  0.620E-16  0.620E-16
   0.880  0.111E-11  0.111E-11
   0.920  0.292E-08  0.292E-08
   0.960  0.112E-05  0.112E-05
   1.000  0.632E-04  0.632E-04
   1.040  0.533E-03  0.533E-03
   1.080  0.958E-03  0.958E-03
   1.120  0.145E-02  0.145E-02
   1.160  0.128E-02  0.128E-02
   1.200  0.269E-02  0.269E-02
   1.240  0.204E-02  0.204E-02
   1.280  0.583E-03  0.583E-03
   1.320  0.255E-02  0.255E-02
   1.360  0.328E-02  0.328E-02
   1.400  0.721E-03  0.721E-03
   1.440  0.495E-04  0.495E-04
   1.480  0.517E-03  0.517E-03
   1.520  0.171E-02  0.171E-02
   1.560  0.231E-02  0.231E-02
   1.600  0.425E-02  0.425E-02
   1.640  0.335E-02  0.335E-02
   1.680  0.143E-02  0.143E-02
   1.720  0.310E-03  0.310E-03
   1.760  0.591E-03  0.591E-03
   1.800  0.261E-02  0.261E-02
   1.840  0.327E-02  0.327E-02
   1.880  0.352E-02  0.352E-02
   1.920  0.102E-02  0.102E-02
   1.960  0.763E-03  0.763E-03
   2.000  0.429E-02  0.429E-02
   2.040  0.681E-02  0.681E-02
   2.080  0.656E-02  0.656E-02
   2.120  0.485E-02  0.485E-02
   2.160  0.302E-02  0.302E-02
   2.200  0.233E-02  0.233E-02
   2.240  0.325E-02  0.325E-02
   2.280  0.301E-02  0.301E-02
   2.320  0.865E-03  0.865E-03
   2.360  0.767E-04  0.767E-04
   2.400  0.248E-05  0.248E-05
   2.440  0.602E-04  0.602E-04
   2.480  0.976E-03  0.976E-03
   2.520  0.307E-02  0.307E-02
   2.560  0.322E-02  0.322E-02
   2.600  0.158E-02  0.158E-02
   2.640  0.367E-03  0.367E-03
   2.680  0.257E-04  0.257E-04
   2.720  0.296E-05  0.296E-05
   2.760  0.139E-04  0.139E-04
   2.800  0.253E-03  0.253E-03
   2.840  0.725E-03  0.725E-03
   2.880  0.429E-03  0.429E-03
   2.920  0.417E-03  0.417E-03
   2.960  0.359E-03  0.359E-03
   3.000  0.292E-03  0.292E-03
   3.040  0.297E-03  0.297E-03
   3.080  0.562E-03  0.562E-03
   3.120  0.460E-03  0.460E-03
   3.160  0.612E-03  0.612E-03
   3.200  0.560E-03  0.560E-03
   3.240  0.419E-03  0.419E-03
   3.280  0.505E-03  0.505E-03
   3.320  0.418E-03  0.418E-03
   3.360  0.380E-03  0.380E-03
   3.400  0.107E-03  0.107E-03
   3.440  0.810E-04  0.810E-04
   3.480  0.228E-03  0.228E-03
   3.520  0.196E-03  0.196E-03
   3.560  0.150E-03  0.150E-03
   3.600  0.164E-03  0.164E-03
   3.640  0.158E-03  0.158E-03
   3.680  0.251E-03  0.251E-03
   3.720  0.351E-03  0.351E-03
   3.760  0.109E-03  0.109E-03
   3.800  0.725E-05  0.725E-05
   3.840  0.385E-05  0.385E-05
   3.880  0.287E-04  0.287E-04
   3.920  0.561E-04  0.561E-04
   3.960  0.331E-04  0.331E-04
   4.000  0.572E-04  0.572E-04
   4.040  0.285E-04  0.285E-04
   4.080  0.868E-05  0.868E-05
   4.120  0.529E-04  0.529E-04
   4.160  0.235E-03  0.235E-03
   4.200  0.164E-03  0.164E-03
   4.240  0.169E-04  0.169E-04
   4.280  0.463E-06  0.463E-06
   4.320  0.183E-05  0.183E-05
   4.360  0.274E-05  0.274E-05
   4.400  0.150E-04  0.150E-04
   4.440  0.932E-04  0.932E-04
   4.480  0.879E-04  0.879E-04
   4.520  0.122E-04  0.122E-04
   4.560  0.147E-05  0.147E-05
   4.600  0.131E-04  0.131E-04
   4.640  0.508E-04  0.508E-04
   4.680  0.137E-03  0.137E-03
   4.720  0.771E-04  0.771E-04
   4.760  0.649E-05  0.649E-05
   4.800  0.802E-07  0.802E-07
   4.840  0.145E-09  0.145E-09
